# B filter from Dave & Anne
#      WAVELENGTH      THROUGHPUT
#       angstroms         
3999 0
4000 2.00
4010 2.10
4020 2.32
4030 2.58
4040 2.85
4050 3.22
4060 3.63
4070 4.34
4080 5.26
4090 6.50
4100 8.08
4110 9.94
4120 12.33
4130 15.17
4140 18.29
4150 21.76
4160 25.34
4170 28.88
4180 32.30
4190 35.50
4200 38.05
4210 40.57
4220 42.43
4230 44.11
4240 45.54
4250 47.02
4260 48.24
4270 49.54
4280 50.91
4290 52.35
4300 53.68
4310 55.09
4320 56.60
4330 58.06
4340 59.80
4350 61.26
4360 62.83
4370 64.13
4380 65.34
4390 66.50
4400 67.02
4410 67.60
4420 67.76
4430 67.47
4440 67.08
4450 66.50
4460 65.81
4470 64.91
4480 64.26
4490 63.76
4500 63.27
4510 63.19
4520 63.40
4530 63.81
4540 64.58
4550 65.68
4560 67.16
4570 68.79
4580 70.56
4590 72.26
4600 73.91
4610 75.31
4620 76.41
4630 77.23
4640 77.70
4650 77.50
4660 77.07
4670 76.47
4680 75.74
4690 74.81
4700 74.23
4710 73.46
4720 72.99
4730 72.81
4740 72.92
4750 73.14
4760 73.61
4770 74.10
4780 74.86
4790 75.70
4800 76.43
4810 77.12
4820 77.75
4830 78.06
4840 78.31
4850 78.26
4860 78.06
4870 77.58
4880 76.85
4890 76.17
4900 75.66
4910 74.98
4920 74.47
4930 74.04
4940 73.86
4950 74.00
4960 73.90
4970 74.03
4980 74.31
4990 74.19
5000 74.03
5010 73.65
5020 72.90
5030 72.01
5040 70.93
5050 69.85
5060 69.11
5070 68.44
5080 67.76
5090 66.96
5100 65.07
5110 61.41
5120 54.99
5130 45.88
5140 35.51
5150 25.51
5160 17.35
5170 11.62
5180 7.74
5190 5.20
5200 3.59
5210 2.54
5220 1.84
5230 1.36
5240 1.02
5250 0.79
5260 0.61
5270 0.48
5280 0.38
5290 0.31
5300 0.24
5310 0.18
5320 0.12
5330 0.08
5340 0.05
5350 0.01
5360 0.01
5370 0.00
5380 0.00
5390 0.00
5400 0.00
