# CFHT12K poor-red B-band instrumental transmission curve from M. Gladders  
#      WAVELENGTH      THROUGHPUT
#       angstroms         
      3600.00      0.00000
      3610.00  0.000224240
      3620.00  0.000481214
      3630.00  0.000770924
      3640.00   0.00109337
      3650.00   0.00144855
      3660.00   0.00183646
      3670.00   0.00225711
      3680.00   0.00271050
      3690.00   0.00319662
      3700.00   0.00371548
      3710.00   0.00522392
      3720.00   0.00684585
      3730.00   0.00858127
      3740.00    0.0104302
      3750.00    0.0123925
      3760.00    0.0144684
      3770.00    0.0166577
      3780.00    0.0189606
      3790.00    0.0213769
      3800.00    0.0239066
      3810.00    0.0325990
      3820.00    0.0417639
      3830.00    0.0514012
      3840.00    0.0615110
      3850.00    0.0720933
      3860.00    0.0831481
      3870.00    0.0946753
      3880.00     0.106675
      3890.00     0.119147
      3900.00     0.132092
      3910.00     0.143602
      3920.00     0.155497
      3930.00     0.167777
      3940.00     0.180442
      3950.00     0.193493
      3960.00     0.206928
      3970.00     0.220749
      3980.00     0.234955
      3990.00     0.249546
      4000.00     0.264523
      4010.00     0.268832
      4020.00     0.273174
      4030.00     0.277549
      4040.00     0.281958
      4050.00     0.286399
      4060.00     0.290874
      4070.00     0.295381
      4080.00     0.299922
      4090.00     0.304496
      4100.00     0.309103
      4110.00     0.312595
      4120.00     0.316099
      4130.00     0.319616
      4140.00     0.323146
      4150.00     0.326688
      4160.00     0.330243
      4170.00     0.333810
      4180.00     0.337390
      4190.00     0.340982
      4200.00     0.344587
      4210.00     0.346676
      4220.00     0.348752
      4230.00     0.350816
      4240.00     0.352867
      4250.00     0.354905
      4260.00     0.356931
      4270.00     0.358945
      4280.00     0.360946
      4290.00     0.362934
      4300.00     0.364910
      4310.00     0.366083
      4320.00     0.367233
      4330.00     0.368357
      4340.00     0.369457
      4350.00     0.370533
      4360.00     0.371584
      4370.00     0.372610
      4380.00     0.373612
      4390.00     0.374589
      4400.00     0.375542
      4410.00     0.374893
      4420.00     0.374197
      4430.00     0.373454
      4440.00     0.372664
      4450.00     0.371828
      4460.00     0.370945
      4470.00     0.370015
      4480.00     0.369038
      4490.00     0.368014
      4500.00     0.366944
      4510.00     0.365459
      4520.00     0.363884
      4530.00     0.362218
      4540.00     0.360461
      4550.00     0.358614
      4560.00     0.356676
      4570.00     0.354648
      4580.00     0.352528
      4590.00     0.350318
      4600.00     0.348018
      4610.00     0.346243
      4620.00     0.344388
      4630.00     0.342453
      4640.00     0.340438
      4650.00     0.338342
      4660.00     0.336167
      4670.00     0.333911
      4680.00     0.331574
      4690.00     0.329158
      4700.00     0.326661
      4710.00     0.323878
      4720.00     0.321012
      4730.00     0.318063
      4740.00     0.315030
      4750.00     0.311913
      4760.00     0.308714
      4770.00     0.305430
      4780.00     0.302064
      4790.00     0.298613
      4800.00     0.295080
      4810.00     0.291019
      4820.00     0.286869
      4830.00     0.282628
      4840.00     0.278298
      4850.00     0.273878
      4860.00     0.269368
      4870.00     0.264768
      4880.00     0.260078
      4890.00     0.255299
      4900.00     0.250430
      4910.00     0.246243
      4920.00     0.241978
      4930.00     0.237633
      4940.00     0.233208
      4950.00     0.228704
      4960.00     0.224121
      4970.00     0.219458
      4980.00     0.214716
      4990.00     0.209895
      5000.00     0.204994
      5010.00     0.199950
      5020.00     0.194870
      5030.00     0.189754
      5040.00     0.184601
      5050.00     0.179413
      5060.00     0.174189
      5070.00     0.168929
      5080.00     0.163633
      5090.00     0.158300
      5100.00     0.152932
      5110.00     0.147854
      5120.00     0.142742
      5130.00     0.137596
      5140.00     0.132416
      5150.00     0.127201
      5160.00     0.121953
      5170.00     0.116671
      5180.00     0.111355
      5190.00     0.106004
      5200.00     0.100620
      5210.00    0.0972198
      5220.00    0.0937977
      5230.00    0.0903536
      5240.00    0.0868875
      5250.00    0.0833994
      5260.00    0.0798892
      5270.00    0.0763570
      5280.00    0.0728028
      5290.00    0.0692265
      5300.00    0.0656282
      5310.00    0.0622158
      5320.00    0.0587825
      5330.00    0.0553284
      5340.00    0.0518534
      5350.00    0.0483577
      5360.00    0.0448411
      5370.00    0.0413037
      5380.00    0.0377454
      5390.00    0.0341664
      5400.00    0.0305665
      5410.00    0.0282289
      5420.00    0.0258777
      5430.00    0.0235129
      5440.00    0.0211344
      5450.00    0.0187424
      5460.00    0.0163367
      5470.00    0.0139174
      5480.00    0.0114845
      5490.00   0.00903799
      5500.00   0.00657785
      5510.00   0.00593629
      5520.00   0.00529112
      5530.00   0.00464234
      5540.00   0.00398997
      5550.00   0.00333398
      5560.00   0.00267439
      5570.00   0.00201120
      5580.00   0.00134441
      5590.00  0.000674006
      5600.00      0.00000
