# CFHT12K  B-band instrumental transmission curve from M. Gladders  
#      WAVELENGTH      THROUGHPUT
#       angstroms         
      3600.00      0.00000
      3610.00  0.000246814
      3620.00  0.000527403
      3630.00  0.000841767
      3640.00   0.00118991
      3650.00   0.00157182
      3660.00   0.00198751
      3670.00   0.00243697
      3680.00   0.00292020
      3690.00   0.00343721
      3700.00   0.00398800
      3710.00   0.00559792
      3720.00   0.00732493
      3730.00   0.00916902
      3740.00    0.0111302
      3750.00    0.0132085
      3760.00    0.0154038
      3770.00    0.0177162
      3780.00    0.0201458
      3790.00    0.0226924
      3800.00    0.0253561
      3810.00    0.0345475
      3820.00    0.0442264
      3830.00    0.0543929
      3840.00    0.0650468
      3850.00    0.0761881
      3860.00    0.0878170
      3870.00    0.0999333
      3880.00     0.112537
      3890.00     0.125628
      3900.00     0.139207
      3910.00     0.151264
      3920.00     0.163719
      3930.00     0.176571
      3940.00     0.189820
      3950.00     0.203467
      3960.00     0.217511
      3970.00     0.231953
      3980.00     0.246792
      3990.00     0.262028
      4000.00     0.277662
      4010.00     0.282364
      4020.00     0.287102
      4030.00     0.291878
      4040.00     0.296691
      4050.00     0.301541
      4060.00     0.306428
      4070.00     0.311351
      4080.00     0.316312
      4090.00     0.321310
      4100.00     0.326345
      4110.00     0.330204
      4120.00     0.334076
      4130.00     0.337963
      4140.00     0.341864
      4150.00     0.345779
      4160.00     0.349709
      4170.00     0.353652
      4180.00     0.357609
      4190.00     0.361580
      4200.00     0.365565
      4210.00     0.367942
      4220.00     0.370304
      4230.00     0.372653
      4240.00     0.374988
      4250.00     0.377308
      4260.00     0.379615
      4270.00     0.381907
      4280.00     0.384186
      4290.00     0.386450
      4300.00     0.388701
      4310.00     0.390096
      4320.00     0.391463
      4330.00     0.392804
      4340.00     0.394117
      4350.00     0.395402
      4360.00     0.396660
      4370.00     0.397891
      4380.00     0.399094
      4390.00     0.400269
      4400.00     0.401418
      4410.00     0.400852
      4420.00     0.400234
      4430.00     0.399563
      4440.00     0.398841
      4450.00     0.398066
      4460.00     0.397238
      4470.00     0.396359
      4480.00     0.395427
      4490.00     0.394443
      4500.00     0.393406
      4510.00     0.391822
      4520.00     0.390140
      4530.00     0.388361
      4540.00     0.386485
      4550.00     0.384511
      4560.00     0.382439
      4570.00     0.380271
      4580.00     0.378004
      4590.00     0.375641
      4600.00     0.373180
      4610.00     0.371283
      4620.00     0.369300
      4630.00     0.367230
      4640.00     0.365074
      4650.00     0.362833
      4660.00     0.360505
      4670.00     0.358090
      4680.00     0.355590
      4690.00     0.353003
      4700.00     0.350330
      4710.00     0.347351
      4720.00     0.344281
      4730.00     0.341123
      4740.00     0.337874
      4750.00     0.334536
      4760.00     0.331108
      4770.00     0.327590
      4780.00     0.323983
      4790.00     0.320287
      4800.00     0.316500
      4810.00     0.312148
      4820.00     0.307700
      4830.00     0.303155
      4840.00     0.298514
      4850.00     0.293776
      4860.00     0.288941
      4870.00     0.284010
      4880.00     0.278982
      4890.00     0.273858
      4900.00     0.268638
      4910.00     0.264150
      4920.00     0.259576
      4930.00     0.254918
      4940.00     0.250174
      4950.00     0.245345
      4960.00     0.240430
      4970.00     0.235430
      4980.00     0.230345
      4990.00     0.225175
      5000.00     0.219919
      5010.00     0.214448
      5020.00     0.208943
      5030.00     0.203402
      5040.00     0.197825
      5050.00     0.192214
      5060.00     0.186567
      5070.00     0.180885
      5080.00     0.175167
      5090.00     0.169414
      5100.00     0.163626
      5110.00     0.158152
      5120.00     0.152645
      5130.00     0.147104
      5140.00     0.141529
      5150.00     0.135922
      5160.00     0.130281
      5170.00     0.124607
      5180.00     0.118899
      5190.00     0.113158
      5200.00     0.107384
      5210.00     0.103730
      5220.00     0.100054
      5230.00    0.0963569
      5240.00    0.0926381
      5250.00    0.0888978
      5260.00    0.0851359
      5270.00    0.0813524
      5280.00    0.0775474
      5290.00    0.0737208
      5300.00    0.0698726
      5310.00    0.0662241
      5320.00    0.0625551
      5330.00    0.0588658
      5340.00    0.0551561
      5350.00    0.0514261
      5360.00    0.0476756
      5370.00    0.0439047
      5380.00    0.0401134
      5390.00    0.0363018
      5400.00    0.0324697
      5410.00    0.0299800
      5420.00    0.0274769
      5430.00    0.0249606
      5440.00    0.0224308
      5450.00    0.0198878
      5460.00    0.0173314
      5470.00    0.0147617
      5480.00    0.0121786
      5490.00   0.00958220
      5500.00   0.00697247
      5510.00   0.00629111
      5520.00   0.00560621
      5530.00   0.00491779
      5540.00   0.00422584
      5550.00   0.00353035
      5560.00   0.00283134
      5570.00   0.00212880
      5580.00   0.00142273
      5590.00  0.000713131
      5600.00      0.00000
