# Dummy tophat filter centered at 10000A.
#      WAVELENGTH      THROUGHPUT
#       angstroms    
9999 1
10000 1 
10100 1
10200 1
10300 1
10400 1 
10500 1
10600 1
10700 1
10800 1
10900 1
11000 1 
11000 1 
11100 1
11200 1
11300 1
11400 1 
11500 1
11600 1
11700 1
11800 1
11900 1
12000 1 
12001 1
