# H filter from Dave & Anne
#      WAVELENGTH      THROUGHPUT
#       angstroms         
13800 0
14000 1
14200 3
14400 4
14600 5
14800 19
15000 56
15200 74
15400 89
15600 86
15800 91
16000 90
16200 89
16400 89
16600 84
16800 85
17000 90
17200 86
17400 75
17600 79
17800 87
18000 84
18200 60
18400 25
18600 8
18800 3
19000 1
19200 0
