# GMOS i filter convolved with GMOS QE
# wavelength throughput
#     A
6800  0  
6850  0.004483  
6900  0.026772  
6950  0.106584  
7000  0.23426  
7050  0.393615  
7100  0.532221  
7150  0.6292335  
7200  0.69861  
7250  0.728625  
7300  0.753662  
7350  0.761577  
7400  0.761024  
7450  0.7642865  
7500  0.75936  
7550  0.749998  
7600  0.740498  
7650  0.727112  
7700  0.713726  
7750  0.70034  
7800  0.686954  
7850  0.673568  
7900  0.656779  
7950  0.643462  
8000  0.63341  
8050  0.6200025  
8100  0.60333  
8150  0.5866575  
8200  0.569985  
8250  0.5533125  
8300  0.533888  
8330  0.5185344  
8350  0.4986355  
8380  0.4655056  
8400  0.43877  
8430  0.4351084  
8450  0.44919  
8480  0.4497328  
8500  0.241  
8550  0.023275  
8600  0.00449  
8650  0.0021625  
8700  0  
