# ISAAC Js curve from ESO website
# wav  transmission
# A	
11000  0.003833  
11000  0.003735  
11010  0.004108  
11010  0.003366  
11010  0.002952  
11020  0.003496  
11020  0.003929  
11030  0.003996  
11030  0.004376  
11030  0.003901  
11040  0.004183  
11040  0.004848  
11040  0.005559  
11050  0.004637  
11050  0.00433  
11050  0.004685  
11060  0.005865  
11060  0.00514  
11060  0.005948  
11070  0.0048  
11070  0.00503  
11080  0.004924  
11080  0.005685  
11080  0.006228  
11090  0.005521  
11090  0.005645  
11090  0.005059  
11100  0.004438  
11100  0.006109  
11100  0.006586  
11110  0.007683  
11110  0.00739  
11110  0.006954  
11120  0.006479  
11120  0.007299  
11130  0.006432  
11130  0.007457  
11130  0.008091  
11140  0.007855  
11140  0.007159  
11140  0.007411  
11150  0.006896  
11150  0.006822  
11150  0.005986  
11160  0.007582  
11160  0.008411  
11160  0.008887  
11170  0.007233  
11170  0.008577  
11180  0.009006  
11180  0.008555  
11180  0.009405  
11190  0.009476  
11190  0.008378  
11190  0.008874  
11200  0.008636  
11200  0.008039  
11200  0.008156  
11210  0.008867  
11210  0.008573  
11210  0.009534  
11220  0.009408  
11220  0.01007  
11230  0.009612  
11230  0.009275  
11230  0.008495  
11240  0.008677  
11240  0.0083  
11240  0.009227  
11250  0.009154  
11250  0.009608  
11250  0.009921  
11260  0.01058  
11260  0.009785  
11260  0.01006  
11270  0.01056  
11270  0.01066  
11280  0.009467  
11280  0.009828  
11280  0.009727  
11290  0.01096  
11290  0.01031  
11290  0.01033  
11300  0.009878  
11300  0.01029  
11300  0.01095  
11310  0.01179  
11310  0.01109  
11310  0.01147  
11320  0.01139  
11320  0.01168  
11330  0.01142  
11330  0.01178  
11330  0.01241  
11340  0.01158  
11340  0.01103  
11340  0.01196  
11350  0.01274  
11350  0.01259  
11350  0.01255  
11360  0.01208  
11360  0.01169  
11360  0.01206  
11370  0.01282  
11370  0.01306  
11380  0.01282  
11380  0.01364  
11380  0.01377  
11390  0.01392  
11390  0.01413  
11390  0.0146  
11400  0.0137  
11400  0.01368  
11400  0.01349  
11410  0.01416  
11410  0.01555  
11410  0.01629  
11420  0.01549  
11420  0.01496  
11430  0.01542  
11430  0.01666  
11430  0.01665  
11440  0.01689  
11440  0.01709  
11440  0.01767  
11450  0.01822  
11450  0.01852  
11450  0.01905  
11460  0.01898  
11460  0.0186  
11460  0.01946  
11470  0.02013  
11470  0.02116  
11480  0.02115  
11480  0.02173  
11480  0.02243  
11490  0.02303  
11490  0.02388  
11490  0.02464  
11500  0.02458  
11500  0.02592  
11500  0.02642  
11510  0.02745  
11510  0.02851  
11510  0.02993  
11520  0.03013  
11520  0.03043  
11530  0.03239  
11530  0.03438  
11530  0.03463  
11540  0.03638  
11540  0.03857  
11540  0.04089  
11550  0.04223  
11550  0.04481  
11550  0.04648  
11560  0.04734  
11560  0.04814  
11570  0.05195  
11570  0.05548  
11570  0.06036  
11580  0.06454  
11580  0.06725  
11580  0.06889  
11590  0.07264  
11590  0.07716  
11590  0.08111  
11600  0.08607  
11600  0.0913  
11600  0.09626  
11610  0.1027  
11610  0.1091  
11620  0.1133  
11620  0.122  
11620  0.1344  
11630  0.1463  
11630  0.1521  
11630  0.1613  
11640  0.1733  
11640  0.1883  
11640  0.2024  
11650  0.2183  
11650  0.2272  
11650  0.2446  
11660  0.2721  
11660  0.2953  
11670  0.3098  
11670  0.3315  
11670  0.349  
11680  0.3773  
11680  0.4014  
11680  0.4269  
11690  0.4521  
11690  0.4862  
11690  0.512  
11700  0.5377  
11700  0.5658  
11700  0.605  
11710  0.6212  
11710  0.6411  
11720  0.6706  
11720  0.7022  
11720  0.7207  
11730  0.7444  
11730  0.7615  
11730  0.7681  
11740  0.7906  
11740  0.8181  
11740  0.8323  
11750  0.8281  
11750  0.8442  
11750  0.8326  
11760  0.8239  
11760  0.8433  
11770  0.8662  
11770  0.8486  
11770  0.8409  
11780  0.8318  
11780  0.8411  
11780  0.8361  
11790  0.8325  
11790  0.8467  
11790  0.8566  
11800  0.8338  
11800  0.8141  
11800  0.8172  
11810  0.8232  
11810  0.8237  
11820  0.8163  
11820  0.8181  
11820  0.816  
11830  0.8201  
11830  0.8126  
11830  0.8097  
11840  0.8057  
11840  0.8131  
11840  0.8093  
11850  0.8081  
11850  0.8013  
11850  0.804  
11860  0.8012  
11860  0.8192  
11870  0.8224  
11870  0.8165  
11870  0.8204  
11880  0.8186  
11880  0.8131  
11880  0.819  
11890  0.8342  
11890  0.8254  
11890  0.8267  
11900  0.8271  
11900  0.8287  
11900  0.8191  
11910  0.8317  
11910  0.8325  
11920  0.8293  
11920  0.834  
11920  0.8431  
11930  0.8419  
11930  0.84  
11930  0.8429  
11940  0.8374  
11940  0.8451  
11940  0.8463  
11950  0.8464  
11950  0.8417  
11950  0.8568  
11960  0.8651  
11960  0.8618  
11970  0.8561  
11970  0.871  
11970  0.8699  
11980  0.8588  
11980  0.8541  
11980  0.8577  
11990  0.8765  
11990  0.8727  
11990  0.883  
12000  0.8889  
12000  0.8929  
12000  0.8937  
12010  0.8875  
12010  0.8753  
12020  0.8653  
12020  0.8764  
12020  0.8835  
12030  0.8838  
12030  0.8742  
12030  0.8814  
12040  0.88  
12040  0.8843  
12040  0.8743  
12050  0.876  
12050  0.8705  
12050  0.8652  
12060  0.8736  
12060  0.8685  
12070  0.8574  
12070  0.8561  
12070  0.8663  
12080  0.8505  
12080  0.8557  
12080  0.8627  
12090  0.867  
12090  0.8611  
12090  0.854  
12100  0.863  
12100  0.8636  
12100  0.8687  
12110  0.8551  
12110  0.8511  
12120  0.8458  
12120  0.845  
12120  0.846  
12130  0.8503  
12130  0.8518  
12130  0.8468  
12140  0.8447  
12140  0.8451  
12140  0.8512  
12150  0.8454  
12150  0.8413  
12160  0.8502  
12160  0.8642  
12160  0.863  
12170  0.8462  
12170  0.8464  
12170  0.8465  
12180  0.8579  
12180  0.8575  
12180  0.862  
12190  0.8666  
12190  0.8708  
12190  0.8444  
12200  0.8452  
12200  0.8675  
12210  0.8647  
12210  0.8875  
12210  0.8838  
12220  0.8797  
12220  0.8649  
12220  0.8562  
12230  0.8613  
12230  0.873  
12230  0.8763  
12240  0.87  
12240  0.8718  
12240  0.866  
12250  0.8754  
12250  0.8791  
12260  0.8803  
12260  0.8799  
12260  0.8756  
12270  0.883  
12270  0.8874  
12270  0.8837  
12280  0.8756  
12280  0.8856  
12280  0.8884  
12290  0.8871  
12290  0.8925  
12290  0.8841  
12300  0.8931  
12300  0.8919  
12310  0.8931  
12310  0.8835  
12310  0.8851  
12320  0.8948  
12320  0.8859  
12320  0.8786  
12330  0.8784  
12330  0.8904  
12330  0.8885  
12340  0.8894  
12340  0.89  
12340  0.8781  
12350  0.8789  
12350  0.883  
12360  0.8801  
12360  0.863  
12360  0.8687  
12370  0.8738  
12370  0.8757  
12370  0.8859  
12380  0.8865  
12380  0.8909  
12380  0.8806  
12390  0.883  
12390  0.8806  
12390  0.8835  
12400  0.8791  
12400  0.8809  
12410  0.8776  
12410  0.8742  
12410  0.8845  
12420  0.8821  
12420  0.8777  
12420  0.8772  
12430  0.8866  
12430  0.8885  
12430  0.8829  
12440  0.8886  
12440  0.8933  
12440  0.8786  
12450  0.8804  
12450  0.8726  
12460  0.8797  
12460  0.8779  
12460  0.8807  
12470  0.8694  
12470  0.8448  
12470  0.8712  
12480  0.8812  
12480  0.8811  
12480  0.8935  
12490  0.8847  
12490  0.8862  
12490  0.8841  
12500  0.8881  
12500  0.8833  
12510  0.8961  
12510  0.8831  
12510  0.8933  
12520  0.8938  
12520  0.9088  
12520  0.9032  
12530  0.8893  
12530  0.8998  
12530  0.9038  
12540  0.911  
12540  0.9095  
12540  0.9136  
12550  0.9101  
12550  0.8972  
12560  0.8987  
12560  0.902  
12560  0.9156  
12570  0.934  
12570  0.915  
12570  0.9095  
12580  0.9241  
12580  0.9161  
12580  0.8991  
12590  0.9045  
12590  0.9226  
12590  0.9176  
12600  0.9208  
12600  0.9242  
12610  0.9277  
12610  0.9177  
12610  0.9098  
12620  0.915  
12620  0.9133  
12620  0.9174  
12630  0.9191  
12630  0.9148  
12630  0.9174  
12640  0.9113  
12640  0.9188  
12640  0.9172  
12650  0.9103  
12650  0.9066  
12660  0.903  
12660  0.9137  
12660  0.9155  
12670  0.9136  
12670  0.9097  
12670  0.9156  
12680  0.9162  
12680  0.9097  
12680  0.9166  
12690  0.9206  
12690  0.9313  
12700  0.923  
12700  0.9069  
12700  0.8858  
12710  0.8915  
12710  0.9085  
12710  0.9084  
12720  0.9082  
12720  0.9232  
12720  0.9478  
12730  0.9391  
12730  0.916  
12730  0.9163  
12740  0.9207  
12740  0.9197  
12750  0.9134  
12750  0.9132  
12750  0.9167  
12760  0.9241  
12760  0.9316  
12760  0.9377  
12770  0.9368  
12770  0.9288  
12770  0.9122  
12780  0.9105  
12780  0.9285  
12780  0.9236  
12790  0.906  
12790  0.9113  
12800  0.9222  
12800  0.9225  
12800  0.9209  
12810  0.9241  
12810  0.9281  
12810  0.9231  
12820  0.9057  
12820  0.8997  
12820  0.9167  
12830  0.9192  
12830  0.9046  
12830  0.8987  
12840  0.905  
12840  0.9138  
12850  0.9244  
12850  0.9158  
12850  0.9136  
12860  0.9164  
12860  0.9039  
12860  0.9012  
12870  0.9015  
12870  0.911  
12870  0.9029  
12880  0.8929  
12880  0.8963  
12880  0.898  
12890  0.9023  
12890  0.9058  
12900  0.9078  
12900  0.8892  
12900  0.8896  
12910  0.8849  
12910  0.8772  
12910  0.8791  
12920  0.8782  
12920  0.8755  
12920  0.8913  
12930  0.8987  
12930  0.8794  
12930  0.8788  
12940  0.8794  
12940  0.8835  
12950  0.8799  
12950  0.8718  
12950  0.8845  
12960  0.8859  
12960  0.8812  
12960  0.8744  
12970  0.8706  
12970  0.871  
12970  0.8773  
12980  0.8675  
12980  0.8668  
12980  0.874  
12990  0.8744  
12990  0.8711  
13000  0.8704  
13000  0.8768  
13000  0.8738  
13010  0.8722  
13010  0.8711  
13010  0.8783  
13020  0.8793  
13020  0.8755  
13020  0.8782  
13030  0.8775  
13030  0.8763  
13030  0.876  
13040  0.8753  
13040  0.8862  
13050  0.888  
13050  0.8796  
13050  0.8774  
13060  0.8743  
13060  0.8769  
13060  0.8732  
13070  0.8712  
13070  0.8755  
13070  0.8742  
13080  0.8723  
13080  0.8671  
13080  0.8723  
13090  0.8745  
13090  0.8704  
13100  0.8771  
13100  0.8692  
13100  0.866  
13110  0.8609  
13110  0.8429  
13110  0.8604  
13120  0.8645  
13120  0.8626  
13120  0.862  
13130  0.8623  
13130  0.8611  
13130  0.8644  
13140  0.8692  
13140  0.8702  
13150  0.8655  
13150  0.8659  
13150  0.8523  
13160  0.8359  
13160  0.8328  
13160  0.8463  
13170  0.8454  
13170  0.8438  
13170  0.843  
13180  0.8394  
13180  0.837  
13180  0.8337  
13190  0.8353  
13190  0.8375  
13200  0.8241  
13200  0.8256  
13200  0.8277  
13210  0.8332  
13210  0.8276  
13210  0.8209  
13220  0.8204  
13220  0.8196  
13220  0.8163  
13230  0.8135  
13230  0.8046  
13230  0.7794  
13240  0.7927  
13240  0.7885  
13250  0.7721  
13250  0.7634  
13250  0.753  
13260  0.7406  
13260  0.7277  
13260  0.7098  
13270  0.6934  
13270  0.6716  
13270  0.6496  
13280  0.6264  
13280  0.6007  
13290  0.5813  
13290  0.5565  
13290  0.5296  
13300  0.5053  
13300  0.4861  
13300  0.4589  
13310  0.4333  
13310  0.4013  
13310  0.3814  
13320  0.3608  
13320  0.3303  
13320  0.31  
13330  0.291  
13330  0.267  
13340  0.2523  
13340  0.2344  
13340  0.2195  
13350  0.2022  
13350  0.1823  
13350  0.1705  
13360  0.1613  
13360  0.1458  
13360  0.137  
13370  0.129  
13370  0.1206  
13370  0.1109  
13380  0.1017  
13380  0.09247  
13390  0.08894  
13390  0.08447  
13390  0.07972  
13400  0.07316  
13400  0.06876  
13400  0.06363  
13410  0.05927  
13410  0.05656  
13410  0.05429  
13420  0.0503  
13420  0.04553  
13420  0.04378  
13430  0.04298  
13430  0.04091  
13440  0.03847  
13440  0.03638  
13440  0.03361  
13450  0.03216  
13450  0.03119  
13450  0.02901  
13460  0.02803  
13460  0.0274  
13460  0.02567  
13470  0.02403  
13470  0.02315  
13470  0.02244  
13480  0.0222  
13480  0.02115  
13490  0.02064  
13490  0.02037  
13490  0.01929  
13500  0.0188  
13500  0.0183  
13500  0.01717  
13510  0.01659  
13510  0.01567  
13510  0.01464  
13520  0.01427  
13520  0.01389  
13520  0.01351  
13530  0.01309  
13530  0.01255  
13540  0.01231  
13540  0.01266  
13540  0.0125  
13550  0.01198  
13550  0.01152  
13550  0.01102  
13560  0.01068  
13560  0.01032  
13560  0.01013  
13570  0.009536  
13570  0.009069  
13570  0.009235  
13580  0.009355  
13580  0.009026  
13590  0.008278  
13590  0.007913  
13590  0.008038  
13600  0.007647  
13600  0.00709  
13600  0.006754  
13610  0.006592  
13610  0.006685  
13610  0.006801  
13620  0.006618  
13620  0.006276  
13620  0.005991  
13630  0.006159  
13630  0.006103  
13640  0.005691  
13640  0.005412  
13640  0.005701  
13650  0.005567  
13650  0.005461  
13650  0.005892  
13660  0.005546  
13660  0.004884  
13660  0.005019  
13670  0.004865  
13670  0.004284  
13670  0.004607  
13680  0.004835  
13680  0.004485  
13690  0.003977  
13690  0.003757  
13690  0.00387  
13700  0.003435  
13700  0.003306  
13700  0.003292  
13710  0.003017  
13710  0.003241  
13710  0.003512  
13720  0.003599  
13720  0.004122  
13720  0.00383  
13730  0.00334  
13730  0.003177  
13740  0.002721  
13740  0.002601  
13740  0.002792  
13750  0.002632  
13750  0.00214  
13750  0.001813  
13760  0.002144  
13760  0.002473  
13760  0.002192  
13770  0.002215  
13770  0.002855  
13770  0.002624  
13780  0.001791  
13780  0.001697  
13790  0.001516  
13790  0.001165  
13790  0.00132  
13800  0.00181  
13800  0.001851  
