# CFHT12K  R-band instrumental transmission curve from M. Gladders  
#      WAVELENGTH      THROUGHPUT
#       angstroms         
      5500.00      0.00000
      5510.00    0.0178636
      5520.00    0.0358175
      5530.00    0.0538615
      5540.00    0.0719958
      5550.00    0.0902202
      5560.00     0.108535
      5570.00     0.126940
      5580.00     0.145435
      5590.00     0.164020
      5600.00     0.182695
      5610.00     0.223757
      5620.00     0.265019
      5630.00     0.306481
      5640.00     0.348142
      5650.00     0.390004
      5660.00     0.432066
      5670.00     0.474328
      5680.00     0.516790
      5690.00     0.559452
      5700.00     0.602313
      5710.00     0.617635
      5720.00     0.633023
      5730.00     0.648477
      5740.00     0.663999
      5750.00     0.679587
      5760.00     0.695241
      5770.00     0.710963
      5780.00     0.726751
      5790.00     0.742606
      5800.00     0.758527
      5810.00     0.766160
      5820.00     0.773820
      5830.00     0.781508
      5840.00     0.789224
      5850.00     0.796966
      5860.00     0.804737
      5870.00     0.812534
      5880.00     0.820359
      5890.00     0.828212
      5900.00     0.836092
      5910.00     0.839724
      5920.00     0.843364
      5930.00     0.847011
      5940.00     0.850667
      5950.00     0.854330
      5960.00     0.858001
      5970.00     0.861680
      5980.00     0.865367
      5990.00     0.869062
      6000.00     0.872764
      6010.00     0.871419
      6020.00     0.870072
      6030.00     0.868723
      6040.00     0.867373
      6050.00     0.866022
      6060.00     0.864668
      6070.00     0.863313
      6080.00     0.861957
      6090.00     0.860599
      6100.00     0.859239
      6110.00     0.857877
      6120.00     0.856514
      6130.00     0.855150
      6140.00     0.853784
      6150.00     0.852416
      6160.00     0.851047
      6170.00     0.849675
      6180.00     0.848303
      6190.00     0.846929
      6200.00     0.845553
      6210.00     0.843294
      6220.00     0.841033
      6230.00     0.838770
      6240.00     0.836504
      6250.00     0.834236
      6260.00     0.831965
      6270.00     0.829692
      6280.00     0.827417
      6290.00     0.825139
      6300.00     0.822859
      6310.00     0.820576
      6320.00     0.818291
      6330.00     0.816003
      6340.00     0.813714
      6350.00     0.811421
      6360.00     0.809127
      6370.00     0.806829
      6380.00     0.804530
      6390.00     0.802228
      6400.00     0.799924
      6410.00     0.796728
      6420.00     0.793529
      6430.00     0.790326
      6440.00     0.787121
      6450.00     0.783912
      6460.00     0.780700
      6470.00     0.777485
      6480.00     0.774267
      6490.00     0.771045
      6500.00     0.767820
      6510.00     0.763476
      6520.00     0.759131
      6530.00     0.754785
      6540.00     0.750437
      6550.00     0.746087
      6560.00     0.741736
      6570.00     0.737384
      6580.00     0.733030
      6590.00     0.728675
      6600.00     0.724319
      6610.00     0.721750
      6620.00     0.719180
      6630.00     0.716609
      6640.00     0.714037
      6650.00     0.711465
      6660.00     0.708891
      6670.00     0.706317
      6680.00     0.703742
      6690.00     0.701166
      6700.00     0.698590
      6710.00     0.693325
      6720.00     0.688058
      6730.00     0.682790
      6740.00     0.677520
      6750.00     0.672248
      6760.00     0.666975
      6770.00     0.661700
      6780.00     0.656423
      6790.00     0.651145
      6800.00     0.645865
      6810.00     0.641480
      6820.00     0.637094
      6830.00     0.632707
      6840.00     0.628318
      6850.00     0.623928
      6860.00     0.619536
      6870.00     0.615143
      6880.00     0.610749
      6890.00     0.606353
      6900.00     0.601955
      6910.00     0.596658
      6920.00     0.591359
      6930.00     0.586059
      6940.00     0.580756
      6950.00     0.575452
      6960.00     0.570147
      6970.00     0.564839
      6980.00     0.559530
      6990.00     0.554220
      7000.00     0.548907
      7010.00     0.544136
      7020.00     0.539368
      7030.00     0.534606
      7040.00     0.529848
      7050.00     0.525094
      7060.00     0.520345
      7070.00     0.515600
      7080.00     0.510860
      7090.00     0.506124
      7100.00     0.501393
      7110.00     0.496667
      7120.00     0.491945
      7130.00     0.487227
      7140.00     0.482514
      7150.00     0.477805
      7160.00     0.473101
      7170.00     0.468402
      7180.00     0.463707
      7190.00     0.459016
      7200.00     0.454330
      7210.00     0.449648
      7220.00     0.444971
      7230.00     0.440299
      7240.00     0.435631
      7250.00     0.430967
      7260.00     0.426308
      7270.00     0.421653
      7280.00     0.417003
      7290.00     0.412358
      7300.00     0.407717
      7310.00     0.402194
      7320.00     0.396677
      7330.00     0.391165
      7340.00     0.385659
      7350.00     0.380158
      7360.00     0.374663
      7370.00     0.369173
      7380.00     0.363688
      7390.00     0.358209
      7400.00     0.352735
      7410.00     0.348148
      7420.00     0.343566
      7430.00     0.338988
      7440.00     0.334414
      7450.00     0.329845
      7460.00     0.325281
      7470.00     0.320721
      7480.00     0.316165
      7490.00     0.311614
      7500.00     0.307068
      7510.00     0.303227
      7520.00     0.299390
      7530.00     0.295557
      7540.00     0.291728
      7550.00     0.287903
      7560.00     0.284081
      7570.00     0.280263
      7580.00     0.276449
      7590.00     0.272639
      7600.00     0.268833
      7610.00     0.265030
      7620.00     0.261231
      7630.00     0.257436
      7640.00     0.253645
      7650.00     0.249857
      7660.00     0.246073
      7670.00     0.242293
      7680.00     0.238517
      7690.00     0.234745
      7700.00     0.230976
      7710.00     0.227211
      7720.00     0.223450
      7730.00     0.219693
      7740.00     0.215939
      7750.00     0.212190
      7760.00     0.208444
      7770.00     0.204701
      7780.00     0.200963
      7790.00     0.197228
      7800.00     0.193498
      7810.00     0.189771
      7820.00     0.186047
      7830.00     0.182328
      7840.00     0.178612
      7850.00     0.174900
      7860.00     0.171192
      7870.00     0.167488
      7880.00     0.163787
      7890.00     0.160090
      7900.00     0.156397
      7910.00     0.152708
      7920.00     0.149023
      7930.00     0.145341
      7940.00     0.141663
      7950.00     0.137989
      7960.00     0.134319
      7970.00     0.130652
      7980.00     0.126989
      7990.00     0.123331
      8000.00     0.119675
      8010.00     0.117450
      8020.00     0.115235
      8030.00     0.113031
      8040.00     0.110839
      8050.00     0.108657
      8060.00     0.106487
      8070.00     0.104327
      8080.00     0.102179
      8090.00     0.100041
      8100.00    0.0979146
      8110.00    0.0957991
      8120.00    0.0936947
      8130.00    0.0916012
      8140.00    0.0895188
      8150.00    0.0874474
      8160.00    0.0853870
      8170.00    0.0833376
      8180.00    0.0812993
      8190.00    0.0792719
      8200.00    0.0772556
      8210.00    0.0752503
      8220.00    0.0732560
      8230.00    0.0712727
      8240.00    0.0693005
      8250.00    0.0673392
      8260.00    0.0653890
      8270.00    0.0634498
      8280.00    0.0615216
      8290.00    0.0596044
      8300.00    0.0576983
      8310.00    0.0558032
      8320.00    0.0539190
      8330.00    0.0520459
      8340.00    0.0501839
      8350.00    0.0483328
      8360.00    0.0464927
      8370.00    0.0446637
      8380.00    0.0428457
      8390.00    0.0410387
      8400.00    0.0392427
      8410.00    0.0374578
      8420.00    0.0356838
      8430.00    0.0339209
      8440.00    0.0321690
      8450.00    0.0304281
      8460.00    0.0286982
      8470.00    0.0269793
      8480.00    0.0252715
      8490.00    0.0235747
      8500.00    0.0218889
      8510.00    0.0213775
      8520.00    0.0208691
      8530.00    0.0203637
      8540.00    0.0198613
      8550.00    0.0193619
      8560.00    0.0188656
      8570.00    0.0183722
      8580.00    0.0178819
      8590.00    0.0173945
      8600.00    0.0169102
      8610.00    0.0164288
      8620.00    0.0159505
      8630.00    0.0154751
      8640.00    0.0150028
      8650.00    0.0145335
      8660.00    0.0140671
      8670.00    0.0136038
      8680.00    0.0131435
      8690.00    0.0126862
      8700.00    0.0122319
      8710.00    0.0117806
      8720.00    0.0113323
      8730.00    0.0108870
      8740.00    0.0104447
      8750.00    0.0100055
      8760.00   0.00956919
      8770.00   0.00913592
      8780.00   0.00870566
      8790.00   0.00827839
      8800.00   0.00785414
      8810.00   0.00743289
      8820.00   0.00701464
      8830.00   0.00659940
      8840.00   0.00618716
      8850.00   0.00577793
      8860.00   0.00537170
      8870.00   0.00496848
      8880.00   0.00456826
      8890.00   0.00417104
      8900.00   0.00377683
      8910.00   0.00338563
      8920.00   0.00299743
      8930.00   0.00261224
      8940.00   0.00223004
      8950.00   0.00185086
      8960.00   0.00147468
      8970.00   0.00110150
      8980.00  0.000731329
      8990.00  0.000364162
      9000.00      0.00000
