# CFHT12K  V-band instrumental transmission curve from M. Gladders  
#      WAVELENGTH      THROUGHPUT
#       angstroms         
      4700.00      0.00000
      4710.00   0.00165510
      4720.00   0.00333606
      4730.00   0.00504288
      4740.00   0.00677555
      4750.00   0.00853408
      4760.00    0.0103185
      4770.00    0.0121287
      4780.00    0.0139648
      4790.00    0.0158268
      4800.00    0.0177146
      4810.00    0.0257546
      4820.00    0.0339093
      4830.00    0.0421786
      4840.00    0.0505626
      4850.00    0.0590611
      4860.00    0.0676743
      4870.00    0.0764022
      4880.00    0.0852446
      4890.00    0.0942017
      4900.00     0.103273
      4910.00     0.122794
      4920.00     0.142568
      4930.00     0.162597
      4940.00     0.182880
      4950.00     0.203417
      4960.00     0.224208
      4970.00     0.245254
      4980.00     0.266554
      4990.00     0.288108
      5000.00     0.309916
      5010.00     0.332667
      5020.00     0.355543
      5030.00     0.378546
      5040.00     0.401675
      5050.00     0.424930
      5060.00     0.448311
      5070.00     0.471819
      5080.00     0.495453
      5090.00     0.519214
      5100.00     0.543100
      5110.00     0.557687
      5120.00     0.572347
      5130.00     0.587080
      5140.00     0.601887
      5150.00     0.616767
      5160.00     0.631720
      5170.00     0.646747
      5180.00     0.661847
      5190.00     0.677020
      5200.00     0.692267
      5210.00     0.696532
      5220.00     0.700810
      5230.00     0.705101
      5240.00     0.709405
      5250.00     0.713722
      5260.00     0.718052
      5270.00     0.722395
      5280.00     0.726750
      5290.00     0.731119
      5300.00     0.735501
      5310.00     0.735470
      5320.00     0.735430
      5330.00     0.735378
      5340.00     0.735316
      5350.00     0.735244
      5360.00     0.735160
      5370.00     0.735067
      5380.00     0.734962
      5390.00     0.734847
      5400.00     0.734722
      5410.00     0.730952
      5420.00     0.727152
      5430.00     0.723323
      5440.00     0.719465
      5450.00     0.715577
      5460.00     0.711660
      5470.00     0.707714
      5480.00     0.703738
      5490.00     0.699732
      5500.00     0.695698
      5510.00     0.689226
      5520.00     0.682712
      5530.00     0.676157
      5540.00     0.669560
      5550.00     0.662922
      5560.00     0.656242
      5570.00     0.649521
      5580.00     0.642758
      5590.00     0.635954
      5600.00     0.629108
      5610.00     0.622061
      5620.00     0.614972
      5630.00     0.607840
      5640.00     0.600666
      5650.00     0.593450
      5660.00     0.586191
      5670.00     0.578890
      5680.00     0.571547
      5690.00     0.564161
      5700.00     0.556733
      5710.00     0.549099
      5720.00     0.541423
      5730.00     0.533703
      5740.00     0.525940
      5750.00     0.518133
      5760.00     0.510284
      5770.00     0.502392
      5780.00     0.494456
      5790.00     0.486477
      5800.00     0.478455
      5810.00     0.470140
      5820.00     0.461780
      5830.00     0.453375
      5840.00     0.444927
      5850.00     0.436434
      5860.00     0.427897
      5870.00     0.419315
      5880.00     0.410689
      5890.00     0.402019
      5900.00     0.393305
      5910.00     0.385486
      5920.00     0.377628
      5930.00     0.369730
      5940.00     0.361792
      5950.00     0.353813
      5960.00     0.345795
      5970.00     0.337737
      5980.00     0.329639
      5990.00     0.321501
      6000.00     0.313322
      6010.00     0.305695
      6020.00     0.298061
      6030.00     0.290419
      6040.00     0.282771
      6050.00     0.275115
      6060.00     0.267452
      6070.00     0.259782
      6080.00     0.252105
      6090.00     0.244421
      6100.00     0.236729
      6110.00     0.230434
      6120.00     0.224133
      6130.00     0.217826
      6140.00     0.211513
      6150.00     0.205195
      6160.00     0.198871
      6170.00     0.192540
      6180.00     0.186204
      6190.00     0.179862
      6200.00     0.173514
      6210.00     0.168130
      6220.00     0.162741
      6230.00     0.157347
      6240.00     0.151947
      6250.00     0.146543
      6260.00     0.141134
      6270.00     0.135720
      6280.00     0.130300
      6290.00     0.124876
      6300.00     0.119447
      6310.00     0.114721
      6320.00     0.109991
      6330.00     0.105256
      6340.00     0.100518
      6350.00    0.0957743
      6360.00    0.0910268
      6370.00    0.0862748
      6380.00    0.0815186
      6390.00    0.0767580
      6400.00    0.0719931
      6410.00    0.0688245
      6420.00    0.0656529
      6430.00    0.0624785
      6440.00    0.0593012
      6450.00    0.0561210
      6460.00    0.0529379
      6470.00    0.0497519
      6480.00    0.0465630
      6490.00    0.0433713
      6500.00    0.0401766
      6510.00    0.0383971
      6520.00    0.0366169
      6530.00    0.0348362
      6540.00    0.0330549
      6550.00    0.0312731
      6560.00    0.0294907
      6570.00    0.0277078
      6580.00    0.0259242
      6590.00    0.0241402
      6600.00    0.0223555
      6610.00    0.0216436
      6620.00    0.0209314
      6630.00    0.0202189
      6640.00    0.0195063
      6650.00    0.0187934
      6660.00    0.0180803
      6670.00    0.0173670
      6680.00    0.0166534
      6690.00    0.0159397
      6700.00    0.0152257
      6710.00    0.0148698
      6720.00    0.0145137
      6730.00    0.0141576
      6740.00    0.0138013
      6750.00    0.0134450
      6760.00    0.0130885
      6770.00    0.0127319
      6780.00    0.0123752
      6790.00    0.0120184
      6800.00    0.0116614
      6810.00    0.0113044
      6820.00    0.0109473
      6830.00    0.0105900
      6840.00    0.0102326
      6850.00   0.00987511
      6860.00   0.00951751
      6870.00   0.00915979
      6880.00   0.00880197
      6890.00   0.00844402
      6900.00   0.00808597
      6910.00   0.00727851
      6920.00   0.00647080
      6930.00   0.00566284
      6940.00   0.00485462
      6950.00   0.00404615
      6960.00   0.00323743
      6970.00   0.00242845
      6980.00   0.00161922
      6990.00  0.000809737
      7000.00      0.00000
